# title     = Sopra (Al(x)Ga(1-x))(50)In(50)P
# reference = Sopra database (H.KATO et al., Japan J. Appl. Phys. Vol 33 (1994) pp. 186-192)
# note      = Al-Concentration x = 0.7
# unit      = micro-m,1,1
# columns   = wavelength, n, k
# xtitle    = wavelength [micro-m]
# ytitle    = n, k
# dataType  = list
0.2250 1.557894 2.638763
0.2275 1.59827 2.693468
0.2300 1.643976 2.751373
0.2325 1.696306 2.812361
0.2350 1.756822 2.876044
0.2375 1.827368 2.941605
0.2400 1.910009 3.00759
0.2425 2.006884 3.071648
0.2450 2.119885 3.130239
0.2475 2.25007 3.178437
0.2500 2.396785 3.209999
0.2525 2.556649 3.21802
0.2550 2.722792 3.196416
0.2575 2.885132 3.142045
0.2600 3.032239 3.056604
0.2625 3.154135 2.947146
0.2650 3.245348 2.824162
0.2675 3.305582 2.6987
0.2700 3.338716 2.57974
0.2725 3.350767 2.473017
0.2750 3.348057 2.381185
0.2775 3.336115 2.304641
0.2800 3.319266 2.242441
0.2825 3.300646 2.193001
0.2850 3.282418 2.154549
0.2875 3.266 2.125381
0.2900 3.252293 2.103971
0.2925 3.241849 2.089008
0.2950 3.235002 2.079395
0.2975 3.231954 2.074214
0.3000 3.232846 2.07269
0.3025 3.237748 2.074277
0.3050 3.246565 2.078954
0.3075 3.259985 2.084875
0.3100 3.277864 2.092245
0.3125 3.300406 2.100516
0.3150 3.327817 2.109105
0.3175 3.360302 2.117351
0.3200 3.398032 2.124485
0.3225 3.441104 2.129619
0.3250 3.489435 2.131733
0.3275 3.542789 2.129718
0.3300 3.600647 2.122406
0.3325 3.662177 2.10866
0.3350 3.726216 2.087477
0.3375 3.791287 2.058114
0.3400 3.855688 2.020202
0.3425 3.917608 1.973834
0.3450 3.975289 1.919592
0.3475 4.027201 1.858505
0.3500 4.072161 1.791951
0.3525 4.109423 1.721512
0.3550 4.138694 1.648813
0.3575 4.160085 1.575391
0.3600 4.174035 1.502596
0.3625 4.181214 1.431527
0.3650 4.182421 1.363014
0.3675 4.178508 1.297645
0.3700 4.170316 1.235779
0.3725 4.15863 1.177602
0.3750 4.144162 1.123155
0.3775 4.127531 1.072377
0.3800 4.109271 1.025142
0.3825 4.089829 0.98127
0.3850 4.069576 0.940553
0.3875 4.048811 0.902773
0.3900 4.027794 0.867735
0.3925 4.006712 0.835209
0.3950 3.985723 0.804994
0.3975 3.964949 0.776896
0.4000 3.944507 0.750746
0.4025 3.924246 0.726279
0.4050 3.904012 0.703253
0.4075 3.884875 0.681991
0.4100 3.866197 0.662062
0.4125 3.848034 0.643366
0.4150 3.830395 0.625797
0.4175 3.813282 0.609259
0.4200 3.796697 0.593666
0.4225 3.780631 0.578938
0.4250 3.765081 0.565001
0.4275 3.750036 0.55179
0.4300 3.735483 0.539247
0.4325 3.721413 0.527314
0.4350 3.707812 0.515942
0.4375 3.694664 0.505087
0.4400 3.681958 0.494704
0.4425 3.669679 0.484758
0.4450 3.657813 0.475211
0.4475 3.646347 0.46603
0.4500 3.635264 0.457186
0.4525 3.624551 0.448648
0.4550 3.614199 0.440396
0.4575 3.604194 0.432402
0.4600 3.59452 0.424643
0.4625 3.585167 0.417099
0.4650 3.576122 0.409748
0.4675 3.567374 0.402573
0.4700 3.558909 0.395555
0.4725 3.550718 0.388677
0.4750 3.542788 0.381922
0.4775 3.535108 0.375275
0.4800 3.527668 0.368719
0.4825 3.520458 0.36224
0.4850 3.513464 0.355822
0.4875 3.506675 0.349451
0.4900 3.500082 0.343112
0.4925 3.49367 0.336788
0.4950 3.487428 0.330464
0.4975 3.481343 0.324125
0.5000 3.475398 0.317752
0.5025 3.469577 0.311327
0.5050 3.463861 0.304831
0.5075 3.458226 0.298242
0.5100 3.452646 0.291538
0.5125 3.447085 0.284695
0.5150 3.441496 0.277685
0.5175 3.435822 0.270484
0.5200 3.429984 0.263077
0.5225 3.423872 0.255458
0.5250 3.417343 0.247662
0.5275 3.410231 0.239797
0.5300 3.402402 0.232095
0.5325 3.39386 0.224882
0.5350 3.384823 0.218453
0.5375 3.375624 0.21291
0.5400 3.366549 0.208165
0.5425 3.357752 0.204056
0.5450 3.34929 0.200428
0.5475 3.341169 0.197163
0.5500 3.33337 0.194177
0.5525 3.325871 0.191411
0.5550 3.318647 0.188822
0.5575 3.311675 0.186378
0.5600 3.304935 0.184059
0.5625 3.298409 0.181845
0.5650 3.292079 0.179724
0.5675 3.285934 0.177685
0.5700 3.279961 0.17572
0.5725 3.274148 0.173822
0.5750 3.268488 0.171986
0.5775 3.262968 0.170204
0.5800 3.257586 0.168476
0.5825 3.252331 0.166797
0.5850 3.247198 0.165164
0.5875 3.242182 0.163573
0.5900 3.237277 0.162023
0.5925 3.232479 0.160512
0.5950 3.227782 0.159038
0.5975 3.223183 0.157598
0.6000 3.218679 0.156192
0.6025 3.214264 0.154818
0.6050 3.209937 0.153474
0.6075 3.205695 0.152159
0.6100 3.201533 0.150872
0.6125 3.197449 0.149613
0.6150 3.193443 0.148379
0.6175 3.189509 0.147171
0.6200 3.185647 0.145987
0.6225 3.181854 0.144826
0.6250 3.178128 0.143688
0.6275 3.174466 0.142572
0.6300 3.170868 0.141478
0.6325 3.16733 0.140403
0.6350 3.163853 0.139348
0.6375 3.160433 0.138313
0.6400 3.157071 0.137297
0.6425 3.153763 0.136299
0.6450 3.150507 0.135318
0.6475 3.147305 0.134355
0.6500 3.144153 0.133408
0.6525 3.141051 0.132477
0.6550 3.137998 0.131563
0.6575 3.134991 0.130663
0.6600 3.13203 0.129778
0.6625 3.129115 0.128908
0.6650 3.126243 0.128052
0.6675 3.123414 0.127211
0.6700 3.120627 0.126382
0.6725 3.11788 0.125566
0.6750 3.115174 0.124764
0.6775 3.112507 0.123974
0.6800 3.109878 0.123196
0.6825 3.107287 0.12243
0.6850 3.104732 0.121675
0.6875 3.102214 0.120932
0.6900 3.099729 0.120199
0.6925 3.097279 0.119478
0.6950 3.094864 0.118767
0.6975 3.092481 0.118067
0.7000 3.09013 0.117376
0.7025 3.087811 0.116696
0.7050 3.085523 0.116025
0.7075 3.083264 0.115364
0.7100 3.081036 0.114711
0.7125 3.078837 0.114068
0.7150 3.076666 0.113433
0.7175 3.074524 0.112807
0.7200 3.07241 0.11219
0.7225 3.070322 0.111581
0.7250 3.06826 0.110979
0.7275 3.066225 0.110387
0.7300 3.064216 0.109802
0.7325 3.062231 0.109224
0.7350 3.060271 0.108654
0.7375 3.058336 0.108091
0.7400 3.056423 0.107536
0.7425 3.054535 0.106987
0.7450 3.052668 0.106445
0.7475 3.050825 0.10591
0.7500 3.049003 0.105382
0.7525 3.047204 0.104861
0.7550 3.045424 0.104345
0.7575 3.043667 0.103836
0.7600 3.04193 0.103333
0.7625 3.040214 0.102837
0.7650 3.038517 0.102345
0.7675 3.036839 0.10186
0.7700 3.035181 0.101381
0.7725 3.033542 0.100907
0.7750 3.031922 0.100438
0.7775 3.030319 0.099975
0.7800 3.028735 0.099518
0.7825 3.027168 0.099066
0.7850 3.025619 0.098619
0.7875 3.024086 0.098176
0.7900 3.022572 0.097739
0.7925 3.021073 0.097307
0.7950 3.019591 0.096879
0.7975 3.018125 0.096456
0.8000 3.016675 0.096038
0.8025 3.01524 0.095623
0.8050 3.013821 0.095215
0.8075 3.012416 0.09481
0.8100 3.011026 0.094409
0.8125 3.009652 0.094013
0.8150 3.008292 0.093621
0.8175 3.006946 0.093233
0.8200 3.005614 0.092848
0.8225 3.004295 0.092468
0.8250 3.00299 0.092092
0.8275 3.001699 0.09172
0.8300 3.000421 0.091351
0.8325 2.999156 0.090986
0.8350 2.997903 0.090625
0.8375 2.996664 0.090268
0.8400 2.995436 0.089914
0.8425 2.99422 0.089564
0.8450 2.993017 0.089217
0.8475 2.991827 0.088873
0.8500 2.990647 0.088533
0.8525 2.989479 0.088196
0.8550 2.988323 0.087863
0.8575 2.987178 0.087532
0.8600 2.986044 0.087205
0.8625 2.984921 0.086881
0.8650 2.983809 0.086559
0.8675 2.982708 0.086242
0.8700 2.981616 0.085926
0.8725 2.980535 0.085614
0.8750 2.979465 0.085304
0.8775 2.978404 0.084998
0.8800 2.977354 0.084695
0.8825 2.976313 0.084394
0.8850 2.975283 0.084096
0.8875 2.974261 0.083801
0.8900 2.973248 0.083507
0.8925 2.972246 0.083217
0.8950 2.971253 0.08293
0.8975 2.970268 0.082644
0.9000 2.969293 0.082362
0.9025 2.968326 0.082082
0.9050 2.967368 0.081805
0.9075 2.966418 0.08153
0.9100 2.965477 0.081256
0.9125 2.964545 0.080986
0.9150 2.963621 0.080718
0.9175 2.962706 0.080452
0.9200 2.961797 0.080188
0.9225 2.960897 0.079927
0.9250 2.960004 0.079668
0.9275 2.959121 0.079411
0.9300 2.958244 0.079156
0.9325 2.957375 0.078903
0.9350 2.956514 0.078653
0.9375 2.955659 0.078404
0.9400 2.954813 0.078157
0.9425 2.953973 0.077913
0.9450 2.953141 0.07767
0.9475 2.952316 0.077429
0.9500 2.951497 0.07719
0.9525 2.950685 0.076953
0.9550 2.949881 0.076719
0.9575 2.949082 0.076486
0.9600 2.948291 0.076255
0.9625 2.947506 0.076025
0.9650 2.946728 0.075797
0.9675 2.945956 0.075571
0.9700 2.94519 0.075348
0.9725 2.944431 0.075125
0.9750 2.943677 0.074905
0.9775 2.94293 0.074685
0.9800 2.94219 0.074469
0.9825 2.941454 0.074253
0.9850 2.940725 0.074039
0.9875 2.940002 0.073826
0.9900 2.939284 0.073616
0.9925 2.938573 0.073406
0.9950 2.937867 0.073198
0.9975 2.937166 0.072993
1.0000 2.936471 0.072788
